Sample name: 2
Applied in-plane field: 200.0(Oe)
Applied current: -1.0999999999999999(mA)

Number Field(Oe) Resistance(Ohm)
1 -1000.0 -17.6942811818
2 -975.0 -17.6802051818
3 -950.0 -17.6648593636
4 -925.0 -17.6492684545
5 -900.0 -17.6323532727
6 -875.0 -17.6405317273
7 -850.0 -17.6308953636
8 -825.0 -17.6151205455
9 -800.0 -17.5997439091
10 -775.0 -17.5780666364
11 -750.0 -17.5584384545
12 -725.0 -17.5397537273
13 -700.0 -17.5123318182
14 -675.0 -17.4815295455
15 -650.0 -17.4573633636
16 -625.0 -17.4244965455
17 -600.0 -17.3911150909
18 -575.0 -17.355794
19 -550.0 -17.3166172727
20 -525.0 -17.2826527273
21 -500.0 -17.2354874545
22 -475.0 -17.1882915455
23 -450.0 -17.134278
24 -425.0 -17.0660143636
25 -400.0 -16.9997153636
26 -375.0 -16.919916
27 -350.0 -16.8296325455
28 -325.0 -16.7277668182
29 -300.0 -16.6098637273
30 -275.0 -16.4889639091
31 -250.0 -16.3420341818
32 -225.0 -16.1770220909
33 -200.0 -15.9928024545
34 -175.0 -15.7925132727
35 -150.0 -15.5636156364
36 -125.0 -15.3145089091
37 -100.0 -15.0628464545
38 -75.0 -14.7840267273
39 -50.0 -14.4755442727
40 -25.0 -14.1415198182
41 -8.22619750096e-13 -13.8254592727
42 25.0 -13.4837730909
43 50.0 -13.1744198182
44 75.0 -12.8437912727
45 100.0 -12.4533578182
46 125.0 -12.1373771818
47 150.0 -11.7813441818
48 175.0 -11.4353147273
49 200.0 -11.0762813636
50 225.0 -10.7257121818
51 250.0 -10.3944604545
52 275.0 -10.0666602727
53 300.0 -9.774933
54 325.0 -9.48636609091
55 350.0 -9.20517581818
56 375.0 -8.98231810909
57 400.0 -8.78384923636
58 425.0 -8.57983702727
59 450.0 -8.40788823636
60 475.0 -8.25977854545
61 500.0 -8.13214629091
62 525.0 -8.0206215
63 550.0 -7.92154521818
64 575.0 -7.83003285455
65 600.0 -7.74734699091
66 625.0 -7.67875254545
67 650.0 -7.61369111818
68 675.0 -7.55665672727
69 700.0 -7.50694307273
70 725.0 -7.46336781818
71 750.0 -7.41706671818
72 775.0 -7.37347924545
73 800.0 -7.33164132727
74 825.0 -7.29325932727
75 850.0 -7.24916946364
76 875.0 -7.21921839091
77 900.0 -7.18659618182
78 925.0 -7.15573267273
79 950.0 -7.12800409091
80 975.0 -7.09954200909
81 1000.0 -7.0745899
82 975.0 -7.03247508182
83 950.0 -7.03846853636
84 925.0 -7.05383293636
85 900.0 -7.07545914545
86 875.0 -7.09862680909
87 850.0 -7.12144588182
88 825.0 -7.14966293636
89 800.0 -7.17845182727
90 775.0 -7.20766276364
91 750.0 -7.2406827
92 725.0 -7.27733052727
93 700.0 -7.31444253636
94 675.0 -7.35549812727
95 650.0 -7.39977135455
96 625.0 -7.44134954545
97 600.0 -7.49071518182
98 575.0 -7.54229786364
99 550.0 -7.59695634545
100 525.0 -7.66308763636
101 500.0 -7.72776139091
102 475.0 -7.80298053636
103 450.0 -7.88884436364
104 425.0 -7.98443026364
105 400.0 -8.10085442727
106 375.0 -8.22560081818
107 350.0 -8.38470898182
108 325.0 -8.54305680909
109 300.0 -8.72504012727
110 275.0 -8.94241524545
111 250.0 -9.16566690909
112 225.0 -9.428503
113 200.0 -9.70781618182
114 175.0 -10.0339970909
115 150.0 -10.3416881818
116 125.0 -10.6600078182
117 100.0 -11.0122522727
118 75.0 -11.3498081818
119 50.0 -11.6876820909
120 25.0 -12.0244104545
121 -7.65887353538e-13 -12.36562
122 -25.0 -12.7175696364
123 -50.0 -13.0715051818
124 -75.0 -13.4007018182
125 -100.0 -13.719322
126 -125.0 -14.058985
127 -150.0 -14.386687
128 -175.0 -14.7101468182
129 -200.0 -14.9898423636
130 -225.0 -15.264882
131 -250.0 -15.5215084545
132 -275.0 -15.7662480909
133 -300.0 -15.9741522727
134 -325.0 -16.158103
135 -350.0 -16.3147459091
136 -375.0 -16.4704321818
137 -400.0 -16.5955995455
138 -425.0 -16.7140170909
139 -450.0 -16.811324
140 -475.0 -16.9007839091
141 -500.0 -16.9782245455
142 -525.0 -17.0548265455
143 -550.0 -17.1183026364
144 -575.0 -17.1731110909
145 -600.0 -17.2338346364
146 -625.0 -17.2781089091
147 -650.0 -17.3130708182
148 -675.0 -17.3478254545
149 -700.0 -17.3811493636
150 -725.0 -17.4149638182
151 -750.0 -17.4604140909
152 -775.0 -17.476897
153 -800.0 -17.5017168182
154 -825.0 -17.5318427273
155 -850.0 -17.5558730909
156 -875.0 -17.5766321818
157 -900.0 -17.5957976364
158 -925.0 -17.6193386364
159 -950.0 -17.6360515455
160 -975.0 -17.6539012727
161 -1000.0 -17.6670266364
