Sample name: 2
Applied in-plane field: 200.0(Oe)
Applied current: 1.7000000000000002(mA)

Number Field(Oe) Resistance(Ohm)
1 -1000.0 -17.6110895882
2 -975.0 -17.5959088824
3 -950.0 -17.5782952353
4 -925.0 -17.561564
5 -900.0 -17.5427889412
6 -875.0 -17.5353485882
7 -850.0 -17.5217565882
8 -825.0 -17.5052981765
9 -800.0 -17.4841424706
10 -775.0 -17.4650662353
11 -750.0 -17.4411198824
12 -725.0 -17.4146445294
13 -700.0 -17.3859818235
14 -675.0 -17.3609294706
15 -650.0 -17.3285517647
16 -625.0 -17.2915810588
17 -600.0 -17.2571817059
18 -575.0 -17.2119848824
19 -550.0 -17.1541187647
20 -525.0 -17.1119198824
21 -500.0 -17.0654660588
22 -475.0 -17.005273
23 -450.0 -16.9440671176
24 -425.0 -16.868486
25 -400.0 -16.7794352353
26 -375.0 -16.6882948824
27 -350.0 -16.5767684706
28 -325.0 -16.4497831176
29 -300.0 -16.3017365294
30 -275.0 -16.1364171176
31 -250.0 -15.968634
32 -225.0 -15.7651777647
33 -200.0 -15.5456488824
34 -175.0 -15.2536757059
35 -150.0 -15.0057844118
36 -125.0 -14.7481892941
37 -100.0 -14.4569721765
38 -75.0 -14.1313792353
39 -50.0 -13.7945181176
40 -25.0 -13.4927128235
41 -8.22619750096e-13 -13.1601562353
42 25.0 -12.8174984118
43 50.0 -12.4658762941
44 75.0 -12.1320461176
45 100.0 -11.7727474118
46 125.0 -11.4220859412
47 150.0 -11.0609873529
48 175.0 -10.7017926471
49 200.0 -10.3660201176
50 225.0 -10.0434376471
51 250.0 -9.72573294118
52 275.0 -9.43639605882
53 300.0 -9.18314976471
54 325.0 -8.92798947059
55 350.0 -8.716321
56 375.0 -8.52024870588
57 400.0 -8.36047276471
58 425.0 -8.19554758824
59 450.0 -8.07340711765
60 475.0 -7.95876888235
61 500.0 -7.86234623529
62 525.0 -7.77671641176
63 550.0 -7.70281094118
64 575.0 -7.63522117647
65 600.0 -7.57369235294
66 625.0 -7.51787670588
67 650.0 -7.46441052941
68 675.0 -7.41528588235
69 700.0 -7.371357
70 725.0 -7.32870558824
71 750.0 -7.28804947059
72 775.0 -7.25003494118
73 800.0 -7.21550570588
74 825.0 -7.17820082353
75 850.0 -7.14484394118
76 875.0 -7.11200735294
77 900.0 -7.08176205882
78 925.0 -7.05314211765
79 950.0 -7.02594705882
80 975.0 -7.00338458824
81 1000.0 -6.97690129412
82 975.0 -6.97256352941
83 950.0 -6.97963152941
84 925.0 -6.99391376471
85 900.0 -7.01338011765
86 875.0 -7.03416023529
87 850.0 -7.05758735294
88 825.0 -7.08280617647
89 800.0 -7.11054611765
90 775.0 -7.13786070588
91 750.0 -7.169156
92 725.0 -7.20258817647
93 700.0 -7.23704947059
94 675.0 -7.27396511765
95 650.0 -7.31235917647
96 625.0 -7.34746017647
97 600.0 -7.39146035294
98 575.0 -7.45126835294
99 550.0 -7.49099135294
100 525.0 -7.54002441176
101 500.0 -7.59409676471
102 475.0 -7.65564064706
103 450.0 -7.71918458824
104 425.0 -7.79394382353
105 400.0 -7.87669164706
106 375.0 -7.97284617647
107 350.0 -8.07737658824
108 325.0 -8.20809152941
109 300.0 -8.35065164706
110 275.0 -8.52281111765
111 250.0 -8.71079805882
112 225.0 -8.91730147059
113 200.0 -9.17623482353
114 175.0 -9.42963205882
115 150.0 -9.69981605882
116 125.0 -10.0164964118
117 100.0 -10.3251371765
118 75.0 -10.6428050588
119 50.0 -11.0013991176
120 25.0 -11.3536499412
121 -7.65887353538e-13 -11.701746
122 -25.0 -12.0510313529
123 -50.0 -12.4034407647
124 -75.0 -12.7498335294
125 -100.0 -13.1026210588
126 -125.0 -13.4319874118
127 -150.0 -13.7615518824
128 -175.0 -14.0950235294
129 -200.0 -14.4189837647
130 -225.0 -14.7277422941
131 -250.0 -15.0330977647
132 -275.0 -15.309208
133 -300.0 -15.5622775882
134 -325.0 -15.7639148235
135 -350.0 -15.9731447647
136 -375.0 -16.1557293529
137 -400.0 -16.3109097647
138 -425.0 -16.4712039412
139 -450.0 -16.6000507647
140 -475.0 -16.7153944118
141 -500.0 -16.8077038824
142 -525.0 -16.8934513529
143 -550.0 -16.9704303529
144 -575.0 -17.0362771176
145 -600.0 -17.0933228235
146 -625.0 -17.1514691176
147 -650.0 -17.1982032353
148 -675.0 -17.2450932353
149 -700.0 -17.2833849412
150 -725.0 -17.3216138235
151 -750.0 -17.3539457647
152 -775.0 -17.3860561176
153 -800.0 -17.4148221765
154 -825.0 -17.4460870588
155 -850.0 -17.4716967059
156 -875.0 -17.4979218235
157 -900.0 -17.5183532941
158 -925.0 -17.5407479412
159 -950.0 -17.5604844118
160 -975.0 -17.5780233529
161 -1000.0 -17.5947959412
