Sample name: 2
Applied in-plane field: 200.0(Oe)
Applied current: 0.5000000000000002(mA)

Number Field(Oe) Resistance(Ohm)
1 -1000.0 -17.52527456
2 -975.0 -17.50979006
3 -950.0 -17.49469474
4 -925.0 -17.47982916
5 -900.0 -17.4612983
6 -875.0 -17.43860218
7 -850.0 -17.41927338
8 -825.0 -17.40435378
9 -800.0 -17.3859974
10 -775.0 -17.36317822
11 -750.0 -17.34680304
12 -725.0 -17.31177918
13 -700.0 -17.28633364
14 -675.0 -17.26096898
15 -650.0 -17.22836568
16 -625.0 -17.19658572
17 -600.0 -17.16155768
18 -575.0 -17.12139472
19 -550.0 -17.07598902
20 -525.0 -17.04113106
21 -500.0 -16.9903478
22 -475.0 -16.93073678
23 -450.0 -16.8753348
24 -425.0 -16.79632966
25 -400.0 -16.71426654
26 -375.0 -16.63685182
27 -350.0 -16.52515036
28 -325.0 -16.41251766
29 -300.0 -16.2805055
30 -275.0 -16.12614988
31 -250.0 -15.96685924
32 -225.0 -15.78091164
33 -200.0 -15.57055472
34 -175.0 -15.35615454
35 -150.0 -15.11477008
36 -125.0 -14.84763222
37 -100.0 -14.56119358
38 -75.0 -14.25125114
39 -50.0 -13.96083056
40 -25.0 -13.62335372
41 -8.22619750096e-13 -13.27408886
42 25.0 -12.97886422
43 50.0 -12.64301086
44 75.0 -12.32007598
45 100.0 -11.97637904
46 125.0 -11.63334936
47 150.0 -11.30173514
48 175.0 -10.93966174
49 200.0 -10.61326332
50 225.0 -10.30072188
51 250.0 -9.95624958
52 275.0 -9.64558498
53 300.0 -9.34482234
54 325.0 -9.09031238
55 350.0 -8.851173
56 375.0 -8.65131466
57 400.0 -8.46537124
58 425.0 -8.30019046
59 450.0 -8.13465982
60 475.0 -8.01151548
61 500.0 -7.8963484
62 525.0 -7.7977068
63 550.0 -7.71995486
64 575.0 -7.64348276
65 600.0 -7.56950452
66 625.0 -7.50572322
67 650.0 -7.44760738
68 675.0 -7.40821256
69 700.0 -7.35146276
70 725.0 -7.30280886
71 750.0 -7.26846234
72 775.0 -7.22156004
73 800.0 -7.18258304
74 825.0 -7.14330954
75 850.0 -7.11041794
76 875.0 -7.07474296
77 900.0 -7.04666978
78 925.0 -7.01778746
79 950.0 -6.99658324
80 975.0 -6.96121732
81 1000.0 -6.93963984
82 975.0 -6.96593352
83 950.0 -6.9775871
84 925.0 -6.99361584
85 900.0 -7.01203958
86 875.0 -7.0337471
87 850.0 -7.06142568
88 825.0 -7.08534822
89 800.0 -7.10512412
90 775.0 -7.14553798
91 750.0 -7.17796914
92 725.0 -7.2128135
93 700.0 -7.24825934
94 675.0 -7.28770308
95 650.0 -7.3257145
96 625.0 -7.37089108
97 600.0 -7.41233288
98 575.0 -7.4607444
99 550.0 -7.51217454
100 525.0 -7.55704294
101 500.0 -7.63085804
102 475.0 -7.69452512
103 450.0 -7.77203356
104 425.0 -7.856306
105 400.0 -7.95773762
106 375.0 -8.06522062
107 350.0 -8.19770976
108 325.0 -8.32753662
109 300.0 -8.50025652
110 275.0 -8.67353204
111 250.0 -8.89434926
112 225.0 -9.12170838
113 200.0 -9.37810518
114 175.0 -9.71157412
115 150.0 -9.98341602
116 125.0 -10.28622788
117 100.0 -10.61513328
118 75.0 -10.9332614
119 50.0 -11.2670994
120 25.0 -11.59906248
121 -7.65887353538e-13 -11.93635344
122 -25.0 -12.30903908
123 -50.0 -12.63397572
124 -75.0 -12.97883724
125 -100.0 -13.2836168
126 -125.0 -13.6215496
127 -150.0 -13.92456072
128 -175.0 -14.2471285
129 -200.0 -14.57394748
130 -225.0 -14.87249868
131 -250.0 -15.13402436
132 -275.0 -15.39114766
133 -300.0 -15.62402232
134 -325.0 -15.82945962
135 -350.0 -16.01617616
136 -375.0 -16.18617696
137 -400.0 -16.3306155
138 -425.0 -16.4749878
139 -450.0 -16.59239154
140 -475.0 -16.69540192
141 -500.0 -16.78328888
142 -525.0 -16.85770958
143 -550.0 -16.93299276
144 -575.0 -16.99428254
145 -600.0 -17.05480348
146 -625.0 -17.10330788
147 -650.0 -17.15062674
148 -675.0 -17.19107004
149 -700.0 -17.23005724
150 -725.0 -17.26741334
151 -750.0 -17.29710078
152 -775.0 -17.33216244
153 -800.0 -17.35952422
154 -825.0 -17.38375734
155 -850.0 -17.41241906
156 -875.0 -17.4339959
157 -900.0 -17.45400998
158 -925.0 -17.47381628
159 -950.0 -17.49453066
160 -975.0 -17.51342666
161 -1000.0 -17.52949586
