sample name
Applied in-plane field: 100.0(Oe)

Initial resistance: 1276.0778347901057Ohm 
Number Current(mA) Resistance(Ohm)
Pulse width 0.3s
1 0 1.98207455
2 0.55 1.98236662
3 1.1 1.98331126
4 1.6500000000000001 1.98339125
5 2.2 1.98287739
6 2.75 1.98349653
7 3.3 1.96817812
8 3.8499999999999996 1.93442603
9 4.3999999999999995 1.89511106
10 4.949999999999999 1.86864648
11 5.499999999999999 1.84937361
12 6.049999999999999 1.83618064
13 6.599999999999999 1.81943485
14 7.149999999999999 1.81043927
15 7.699999999999998 1.80347048
16 8.249999999999998 1.7991043
17 8.799999999999999 1.79585774
18 9.35 1.7936732
19 9.9 1.79234419
20 10.450000000000001 1.78726731
21 11.000000000000002 1.7841013
22 10.450000000000001 1.78390725
23 9.9 1.78281718
24 9.35 1.78255398
25 8.799999999999999 1.7831873
26 8.249999999999998 1.78259465
27 7.699999999999998 1.78355026
28 7.149999999999999 1.78478144
29 6.599999999999999 1.78538838
30 6.049999999999999 1.78513248
31 5.499999999999999 1.78611731
32 4.949999999999999 1.78842304
33 4.3999999999999995 1.78917133
34 3.8499999999999996 1.7882477
35 3.3 1.7896355
36 2.75 1.79075414
37 2.2 1.79214962
38 1.6500000000000001 1.79234206
39 1.1 1.7935416
40 0.55 1.79532101
41 0.0 1.79511513
42 -0.55 1.79479852
43 -1.1 1.79607994
44 -1.6500000000000001 1.79562668
45 -2.2 1.79760048
46 -2.75 1.82320054
47 -3.3 1.86060565
48 -3.8499999999999996 1.89103462
49 -4.3999999999999995 1.91654938
50 -4.949999999999999 1.93608109
51 -5.499999999999999 1.94827331
52 -6.049999999999999 1.9577401
53 -6.599999999999999 1.96202912
54 -7.149999999999999 1.9657836
55 -7.699999999999998 1.96790682
56 -8.249999999999998 1.97334753
57 -8.799999999999999 1.97418442
58 -9.35 1.9749216
59 -9.9 1.97270868
60 -10.450000000000001 1.97132334
61 -11.000000000000002 1.97025291
62 -10.450000000000001 1.96830688
63 -9.9 1.96874072
64 -9.35 1.96820868
65 -8.799999999999999 1.96771959
66 -8.249999999999998 1.97070366
67 -7.699999999999998 1.97012366
68 -7.149999999999999 1.96949504
69 -6.599999999999999 1.97062711
70 -6.049999999999999 1.97214251
71 -5.499999999999999 1.97266127
72 -4.949999999999999 1.97352226
73 -4.3999999999999995 1.97395508
74 -3.8499999999999996 1.97474578
75 -3.3 1.97471582
76 -2.75 1.97555896
77 -2.2 1.97689431
78 -1.6500000000000001 1.97834405
79 -1.1 1.97771602
80 -0.55 1.97840997
81 0.0 1.97889437
