sample name
Applied in-plane field: 100.0(Oe)

Initial resistance: 1306.6105527514947Ohm 
Number Current(mA) Resistance(Ohm)
Pulse width 0.05s
1 0 1.98445421
2 0.55 1.98478387
3 1.1 1.98468926
4 1.6500000000000001 1.98383153
5 2.2 1.98518678
6 2.75 1.98420807
7 3.3 1.98413367
8 3.8499999999999996 1.97684279
9 4.3999999999999995 1.97029958
10 4.949999999999999 1.95704717
11 5.499999999999999 1.93078483
12 6.049999999999999 1.90120767
13 6.599999999999999 1.8716851
14 7.149999999999999 1.85190599
15 7.699999999999998 1.83750126
16 8.249999999999998 1.82981768
17 8.799999999999999 1.82379995
18 9.35 1.81862529
19 9.9 1.81084194
20 10.450000000000001 1.80816126
21 11.000000000000002 1.80483912
22 10.450000000000001 1.80310869
23 9.9 1.80270584
24 9.35 1.80056163
25 8.799999999999999 1.80161289
26 8.249999999999998 1.80122877
27 7.699999999999998 1.80101435
28 7.149999999999999 1.80124899
29 6.599999999999999 1.80151608
30 6.049999999999999 1.80006025
31 5.499999999999999 1.80231088
32 4.949999999999999 1.80195335
33 4.3999999999999995 1.80266821
34 3.8499999999999996 1.80353845
35 3.3 1.80373175
36 2.75 1.80470358
37 2.2 1.80400951
38 1.6500000000000001 1.80463197
39 1.1 1.80494322
40 0.55 1.80443769
41 0.0 1.80460622
42 -0.55 1.80456828
43 -1.1 1.80540312
44 -1.6500000000000001 1.80598303
45 -2.2 1.80682797
46 -2.75 1.80978482
47 -3.3 1.81419201
48 -3.8499999999999996 1.82015439
49 -4.3999999999999995 1.83468999
50 -4.949999999999999 1.86816218
51 -5.499999999999999 1.90793203
52 -6.049999999999999 1.92808893
53 -6.599999999999999 1.94932404
54 -7.149999999999999 1.95513375
55 -7.699999999999998 1.96546484
56 -8.249999999999998 1.97099182
57 -8.799999999999999 1.97571599
58 -9.35 1.97665175
59 -9.9 1.97999302
60 -10.450000000000001 1.98193905
61 -11.000000000000002 1.98156711
62 -10.450000000000001 1.98094087
63 -9.9 1.98264299
64 -9.35 1.98080344
65 -8.799999999999999 1.98084912
66 -8.249999999999998 1.98229049
67 -7.699999999999998 1.98137488
68 -7.149999999999999 1.98172702
69 -6.599999999999999 1.98155855
70 -6.049999999999999 1.98040445
71 -5.499999999999999 1.98143573
72 -4.949999999999999 1.98303403
73 -4.3999999999999995 1.98331432
74 -3.8499999999999996 1.98271453
75 -3.3 1.98327453
76 -2.75 1.98298757
77 -2.2 1.9821521
78 -1.6500000000000001 1.98257706
79 -1.1 1.98163423
80 -0.55 1.98208857
81 0.0 1.98216045
