sample name
Applied in-plane field: 100.0(Oe)

Initial resistance: 1319.1825896565604Ohm 
Number Current(mA) Resistance(Ohm)
Pulse width 0.9999999999999999s
1 0 1.98759243
2 0.55 1.98920167
3 1.1 1.9872932
4 1.6500000000000001 1.98855231
5 2.2 1.97866453
6 2.75 1.956612
7 3.3 1.92448139
8 3.8499999999999996 1.88508617
9 4.3999999999999995 1.86200444
10 4.949999999999999 1.84919328
11 5.499999999999999 1.8360261
12 6.049999999999999 1.82987336
13 6.599999999999999 1.81948248
14 7.149999999999999 1.80978264
15 7.699999999999998 1.80381245
16 8.249999999999998 1.80311185
17 8.799999999999999 1.80037645
18 9.35 1.79945659
19 9.9 1.79493414
20 10.450000000000001 1.79319197
21 11.000000000000002 1.79379805
22 10.450000000000001 1.79143975
23 9.9 1.7917462
24 9.35 1.79226443
25 8.799999999999999 1.79205847
26 8.249999999999998 1.79125709
27 7.699999999999998 1.79266188
28 7.149999999999999 1.79312462
29 6.599999999999999 1.7941455
30 6.049999999999999 1.79496811
31 5.499999999999999 1.79437577
32 4.949999999999999 1.79485117
33 4.3999999999999995 1.79613661
34 3.8499999999999996 1.79755972
35 3.3 1.79824521
36 2.75 1.7976378
37 2.2 1.7979028
38 1.6500000000000001 1.79827551
39 1.1 1.80072966
40 0.55 1.80021167
41 0.0 1.80044122
42 -0.55 1.80251352
43 -1.1 1.80442089
44 -1.6500000000000001 1.81581416
45 -2.2 1.84043224
46 -2.75 1.88971754
47 -3.3 1.92274978
48 -3.8499999999999996 1.94167876
49 -4.3999999999999995 1.95519826
50 -4.949999999999999 1.96446845
51 -5.499999999999999 1.96981168
52 -6.049999999999999 1.975148
53 -6.599999999999999 1.97959338
54 -7.149999999999999 1.9808538
55 -7.699999999999998 1.98268283
56 -8.249999999999998 1.98523198
57 -8.799999999999999 1.98358484
58 -9.35 1.98447383
59 -9.9 1.9848485
60 -10.450000000000001 1.9831141
61 -11.000000000000002 1.98120079
62 -10.450000000000001 1.98083595
63 -9.9 1.98096486
64 -9.35 1.98095863
65 -8.799999999999999 1.98089315
66 -8.249999999999998 1.980243
67 -7.699999999999998 1.98009255
68 -7.149999999999999 1.98176655
69 -6.599999999999999 1.98157364
70 -6.049999999999999 1.98333743
71 -5.499999999999999 1.98346603
72 -4.949999999999999 1.98408189
73 -4.3999999999999995 1.98483497
74 -3.8499999999999996 1.9851349
75 -3.3 1.98543963
76 -2.75 1.98558776
77 -2.2 1.98708344
78 -1.6500000000000001 1.98772349
79 -1.1 1.98841144
80 -0.55 1.98875386
81 0.0 1.98778713
