sample name
Applied in-plane field: 100.0(Oe)

Initial resistance: 1302.4930951441245Ohm 
Number Current(mA) Resistance(Ohm)
Pulse width 0.060000000000000005s
1 0 1.98408584
2 0.55 1.98393772
3 1.1 1.98533939
4 1.6500000000000001 1.98491001
5 2.2 1.98509179
6 2.75 1.98435732
7 3.3 1.98416217
8 3.8499999999999996 1.9812781
9 4.3999999999999995 1.96747562
10 4.949999999999999 1.94130744
11 5.499999999999999 1.91549202
12 6.049999999999999 1.88942048
13 6.599999999999999 1.86745726
14 7.149999999999999 1.84559785
15 7.699999999999998 1.83293598
16 8.249999999999998 1.8228475
17 8.799999999999999 1.81905881
18 9.35 1.81263001
19 9.9 1.8084587
20 10.450000000000001 1.80509611
21 11.000000000000002 1.7988092
22 10.450000000000001 1.79882954
23 9.9 1.79778642
24 9.35 1.79715975
25 8.799999999999999 1.79825842
26 8.249999999999998 1.79764667
27 7.699999999999998 1.79848326
28 7.149999999999999 1.79855171
29 6.599999999999999 1.79973787
30 6.049999999999999 1.79921122
31 5.499999999999999 1.79981523
32 4.949999999999999 1.79989058
33 4.3999999999999995 1.80110935
34 3.8499999999999996 1.80249606
35 3.3 1.80225109
36 2.75 1.80202761
37 2.2 1.80338054
38 1.6500000000000001 1.80339607
39 1.1 1.80363257
40 0.55 1.8029262
41 0.0 1.80414616
42 -0.55 1.80480546
43 -1.1 1.80531201
44 -1.6500000000000001 1.80589812
45 -2.2 1.80669998
46 -2.75 1.80738368
47 -3.3 1.81012615
48 -3.8499999999999996 1.81968954
49 -4.3999999999999995 1.8321978
50 -4.949999999999999 1.87119414
51 -5.499999999999999 1.9121658
52 -6.049999999999999 1.9360829
53 -6.599999999999999 1.94911702
54 -7.149999999999999 1.95752689
55 -7.699999999999998 1.96349104
56 -8.249999999999998 1.97153729
57 -8.799999999999999 1.97485305
58 -9.35 1.97702191
59 -9.9 1.97890096
60 -10.450000000000001 1.98219693
61 -11.000000000000002 1.98167804
62 -10.450000000000001 1.98343596
63 -9.9 1.98271636
64 -9.35 1.98186181
65 -8.799999999999999 1.98322857
66 -8.249999999999998 1.98348766
67 -7.699999999999998 1.98295469
68 -7.149999999999999 1.98405981
69 -6.599999999999999 1.98323053
70 -6.049999999999999 1.98350557
71 -5.499999999999999 1.98381704
72 -4.949999999999999 1.9831836
73 -4.3999999999999995 1.98271997
74 -3.8499999999999996 1.98405241
75 -3.3 1.98455782
76 -2.75 1.98537985
77 -2.2 1.98473455
78 -1.6500000000000001 1.98530781
79 -1.1 1.98432785
80 -0.55 1.9845908
81 0.0 1.98489405
