sample name
Applied in-plane field: 100.0(Oe)

Initial resistance: 1321.1333509438668Ohm 
Number Current(mA) Resistance(Ohm)
Pulse width 0.07s
1 0 1.98711874
2 0.55 1.98717255
3 1.1 1.98568445
4 1.6500000000000001 1.98604049
5 2.2 1.98627705
6 2.75 1.9865869
7 3.3 1.98559499
8 3.8499999999999996 1.98421465
9 4.3999999999999995 1.97423066
10 4.949999999999999 1.94892628
11 5.499999999999999 1.9201504
12 6.049999999999999 1.88938268
13 6.599999999999999 1.85701522
14 7.149999999999999 1.84286443
15 7.699999999999998 1.83293054
16 8.249999999999998 1.82333329
17 8.799999999999999 1.8182601
18 9.35 1.8134757
19 9.9 1.8075321
20 10.450000000000001 1.80384624
21 11.000000000000002 1.79803165
22 10.450000000000001 1.79816508
23 9.9 1.79669038
24 9.35 1.79748519
25 8.799999999999999 1.7970272
26 8.249999999999998 1.79644252
27 7.699999999999998 1.79774555
28 7.149999999999999 1.79766567
29 6.599999999999999 1.79795636
30 6.049999999999999 1.79785647
31 5.499999999999999 1.79838884
32 4.949999999999999 1.79808946
33 4.3999999999999995 1.79957754
34 3.8499999999999996 1.79897678
35 3.3 1.79831747
36 2.75 1.79971826
37 2.2 1.80048779
38 1.6500000000000001 1.79992724
39 1.1 1.80041158
40 0.55 1.80112491
41 0.0 1.80009687
42 -0.55 1.80199283
43 -1.1 1.80325863
44 -1.6500000000000001 1.80343198
45 -2.2 1.80345207
46 -2.75 1.80376981
47 -3.3 1.80359832
48 -3.8499999999999996 1.80629317
49 -4.3999999999999995 1.81419061
50 -4.949999999999999 1.86072317
51 -5.499999999999999 1.9064094
52 -6.049999999999999 1.93567625
53 -6.599999999999999 1.94901934
54 -7.149999999999999 1.96005088
55 -7.699999999999998 1.96564841
56 -8.249999999999998 1.9704401
57 -8.799999999999999 1.97221226
58 -9.35 1.97725828
59 -9.9 1.98044579
60 -10.450000000000001 1.98165058
61 -11.000000000000002 1.98100474
62 -10.450000000000001 1.98184729
63 -9.9 1.98215663
64 -9.35 1.98135319
65 -8.799999999999999 1.98163784
66 -8.249999999999998 1.98164219
67 -7.699999999999998 1.98216935
68 -7.149999999999999 1.9813553
69 -6.599999999999999 1.98236463
70 -6.049999999999999 1.9828565
71 -5.499999999999999 1.98167799
72 -4.949999999999999 1.98314206
73 -4.3999999999999995 1.98246962
74 -3.8499999999999996 1.98313503
75 -3.3 1.98238709
76 -2.75 1.9840379
77 -2.2 1.98317106
78 -1.6500000000000001 1.98351405
79 -1.1 1.9853267
80 -0.55 1.98382735
81 0.0 1.98324788
