sample name
Applied in-plane field: 100.0(Oe)

Initial resistance: 1364.1278636885168Ohm 
Number Current(mA) Resistance(Ohm)
Pulse width 0.03s
1 0 1.98431221
2 0.55 1.98464404
3 1.1 1.98537183
4 1.6500000000000001 1.98427196
5 2.2 1.9842259
6 2.75 1.98436709
7 3.3 1.98609343
8 3.8499999999999996 1.98464512
9 4.3999999999999995 1.98316114
10 4.949999999999999 1.9690498
11 5.499999999999999 1.94822036
12 6.049999999999999 1.919035
13 6.599999999999999 1.88229484
14 7.149999999999999 1.86597932
15 7.699999999999998 1.85360566
16 8.249999999999998 1.8422904
17 8.799999999999999 1.82690501
18 9.35 1.81970036
19 9.9 1.81611597
20 10.450000000000001 1.81294338
21 11.000000000000002 1.80619655
22 10.450000000000001 1.80462473
23 9.9 1.80485597
24 9.35 1.80535688
25 8.799999999999999 1.80465482
26 8.249999999999998 1.80417064
27 7.699999999999998 1.8038136
28 7.149999999999999 1.8043131
29 6.599999999999999 1.80433417
30 6.049999999999999 1.80468433
31 5.499999999999999 1.80439481
32 4.949999999999999 1.80580335
33 4.3999999999999995 1.80575621
34 3.8499999999999996 1.80587751
35 3.3 1.80544647
36 2.75 1.80655832
37 2.2 1.80572958
38 1.6500000000000001 1.80658672
39 1.1 1.8065061
40 0.55 1.80764495
41 0.0 1.80713954
42 -0.55 1.80823225
43 -1.1 1.80704096
44 -1.6500000000000001 1.80902628
45 -2.2 1.80862832
46 -2.75 1.81019851
47 -3.3 1.81279818
48 -3.8499999999999996 1.81903143
49 -4.3999999999999995 1.83476524
50 -4.949999999999999 1.86918684
51 -5.499999999999999 1.9030422
52 -6.049999999999999 1.92717143
53 -6.599999999999999 1.94463449
54 -7.149999999999999 1.95511244
55 -7.699999999999998 1.96094032
56 -8.249999999999998 1.96820157
57 -8.799999999999999 1.97450352
58 -9.35 1.97856714
59 -9.9 1.9793843
60 -10.450000000000001 1.97990858
61 -11.000000000000002 1.98276008
62 -10.450000000000001 1.98317222
63 -9.9 1.98094814
64 -9.35 1.98148873
65 -8.799999999999999 1.98243022
66 -8.249999999999998 1.98182225
67 -7.699999999999998 1.98197817
68 -7.149999999999999 1.98051585
69 -6.599999999999999 1.98193187
70 -6.049999999999999 1.98149938
71 -5.499999999999999 1.98064349
72 -4.949999999999999 1.98083231
73 -4.3999999999999995 1.98134401
74 -3.8499999999999996 1.9811688
75 -3.3 1.98169358
76 -2.75 1.9815793
77 -2.2 1.98216748
78 -1.6500000000000001 1.98169339
79 -1.1 1.98266644
80 -0.55 1.98219575
81 0.0 1.98207418
