sample name
Applied in-plane field: 100.0(Oe)

Initial resistance: 1777.517623010717Ohm 
Number Current(mA) Resistance(Ohm)
Pulse width 0.2s
1 0 1.98525291
2 0.55 1.984134
3 1.1 1.98499121
4 1.6500000000000001 1.98463551
5 2.2 1.98392736
6 2.75 1.98267367
7 3.3 1.97570555
8 3.8499999999999996 1.95654541
9 4.3999999999999995 1.9281744
10 4.949999999999999 1.88962064
11 5.499999999999999 1.86790828
12 6.049999999999999 1.84964072
13 6.599999999999999 1.83544732
14 7.149999999999999 1.82400065
15 7.699999999999998 1.81357461
16 8.249999999999998 1.80772016
17 8.799999999999999 1.80621393
18 9.35 1.80102701
19 9.9 1.79469904
20 10.450000000000001 1.79266348
21 11.000000000000002 1.79183994
22 10.450000000000001 1.78965783
23 9.9 1.79003545
24 9.35 1.78981973
25 8.799999999999999 1.78975896
26 8.249999999999998 1.78972526
27 7.699999999999998 1.79145884
28 7.149999999999999 1.79221899
29 6.599999999999999 1.79281512
30 6.049999999999999 1.79390187
31 5.499999999999999 1.79248822
32 4.949999999999999 1.79275591
33 4.3999999999999995 1.79545117
34 3.8499999999999996 1.79518162
35 3.3 1.79524795
36 2.75 1.79716236
37 2.2 1.79693182
38 1.6500000000000001 1.79783142
39 1.1 1.79766956
40 0.55 1.79858515
41 0.0 1.79821982
42 -0.55 1.79958228
43 -1.1 1.80117263
44 -1.6500000000000001 1.80133424
45 -2.2 1.80320787
46 -2.75 1.81208309
47 -3.3 1.82716737
48 -3.8499999999999996 1.86363541
49 -4.3999999999999995 1.90450048
50 -4.949999999999999 1.92729596
51 -5.499999999999999 1.94416321
52 -6.049999999999999 1.95517303
53 -6.599999999999999 1.96126372
54 -7.149999999999999 1.96800553
55 -7.699999999999998 1.97087052
56 -8.249999999999998 1.97674991
57 -8.799999999999999 1.97643782
58 -9.35 1.97867756
59 -9.9 1.97901949
60 -10.450000000000001 1.97672039
61 -11.000000000000002 1.97654387
62 -10.450000000000001 1.97615834
63 -9.9 1.97514123
64 -9.35 1.97468473
65 -8.799999999999999 1.97561566
66 -8.249999999999998 1.97536877
67 -7.699999999999998 1.97522659
68 -7.149999999999999 1.97616795
69 -6.599999999999999 1.97607223
70 -6.049999999999999 1.97582404
71 -5.499999999999999 1.97795454
72 -4.949999999999999 1.97711859
73 -4.3999999999999995 1.97676747
74 -3.8499999999999996 1.97745663
75 -3.3 1.97901065
76 -2.75 1.97909762
77 -2.2 1.97914247
78 -1.6500000000000001 1.98031656
79 -1.1 1.98055875
80 -0.55 1.98056576
81 0.0 1.98179168
