sample name
Applied in-plane field: 100.0(Oe)

Initial resistance: 1438.2925353473831Ohm 
Number Current(mA) Resistance(Ohm)
Pulse width 0.44999999999999996s
1 0 1.97827581
2 0.55 1.97835659
3 1.1 1.97797396
4 1.6500000000000001 1.9764283
5 2.2 1.97693179
6 2.75 1.97550424
7 3.3 1.95299583
8 3.8499999999999996 1.91431641
9 4.3999999999999995 1.87645928
10 4.949999999999999 1.85237408
11 5.499999999999999 1.83941553
12 6.049999999999999 1.82472093
13 6.599999999999999 1.81145021
14 7.149999999999999 1.80039157
15 7.699999999999998 1.79225255
16 8.249999999999998 1.78907148
17 8.799999999999999 1.78525835
18 9.35 1.78529134
19 9.9 1.78198892
20 10.450000000000001 1.77934077
21 11.000000000000002 1.77692999
22 10.450000000000001 1.77531318
23 9.9 1.77496014
24 9.35 1.77509504
25 8.799999999999999 1.77487654
26 8.249999999999998 1.77542925
27 7.699999999999998 1.77567502
28 7.149999999999999 1.77562292
29 6.599999999999999 1.77759714
30 6.049999999999999 1.77716021
31 5.499999999999999 1.77810529
32 4.949999999999999 1.7795069
33 4.3999999999999995 1.78013783
34 3.8499999999999996 1.7817368
35 3.3 1.78298465
36 2.75 1.78489298
37 2.2 1.78424012
38 1.6500000000000001 1.78543167
39 1.1 1.78535712
40 0.55 1.78624012
41 0.0 1.7879252
42 -0.55 1.78845692
43 -1.1 1.78856454
44 -1.6500000000000001 1.7883371
45 -2.2 1.79833749
46 -2.75 1.81356106
47 -3.3 1.85219366
48 -3.8499999999999996 1.90790661
49 -4.3999999999999995 1.93303659
50 -4.949999999999999 1.93968178
51 -5.499999999999999 1.94782704
52 -6.049999999999999 1.95896822
53 -6.599999999999999 1.96416368
54 -7.149999999999999 1.96575243
55 -7.699999999999998 1.96638705
56 -8.249999999999998 1.96674058
57 -8.799999999999999 1.96716899
58 -9.35 1.96695981
59 -9.9 1.96670661
60 -10.450000000000001 1.96291884
61 -11.000000000000002 1.96138846
62 -10.450000000000001 1.96085637
63 -9.9 1.96128368
64 -9.35 1.96091324
65 -8.799999999999999 1.96282148
66 -8.249999999999998 1.96263262
67 -7.699999999999998 1.96323361
68 -7.149999999999999 1.963839
69 -6.599999999999999 1.96461403
70 -6.049999999999999 1.96465745
71 -5.499999999999999 1.96522734
72 -4.949999999999999 1.96485394
73 -4.3999999999999995 1.96609083
74 -3.8499999999999996 1.96948026
75 -3.3 1.96907359
76 -2.75 1.97031246
77 -2.2 1.97044992
78 -1.6500000000000001 1.97236212
79 -1.1 1.97232565
80 -0.55 1.97313081
81 0.0 1.97464007
