sample name
Applied in-plane field: 100.0(Oe)

Initial resistance: 1299.6085339185354Ohm 
Number Current(mA) Resistance(Ohm)
Pulse width 0.08s
1 0 1.98487088
2 0.55 1.9859623
3 1.1 1.98488975
4 1.6500000000000001 1.98551659
5 2.2 1.98576694
6 2.75 1.98532128
7 3.3 1.98563104
8 3.8499999999999996 1.98506205
9 4.3999999999999995 1.97043617
10 4.949999999999999 1.94755318
11 5.499999999999999 1.92116323
12 6.049999999999999 1.88275072
13 6.599999999999999 1.85382142
14 7.149999999999999 1.83868476
15 7.699999999999998 1.82530843
16 8.249999999999998 1.81673658
17 8.799999999999999 1.8123565
18 9.35 1.81083456
19 9.9 1.80690397
20 10.450000000000001 1.80449785
21 11.000000000000002 1.79984823
22 10.450000000000001 1.79750442
23 9.9 1.79805699
24 9.35 1.79796409
25 8.799999999999999 1.79745986
26 8.249999999999998 1.79744639
27 7.699999999999998 1.79716471
28 7.149999999999999 1.79747629
29 6.599999999999999 1.79792212
30 6.049999999999999 1.79803503
31 5.499999999999999 1.79881657
32 4.949999999999999 1.79803499
33 4.3999999999999995 1.79942322
34 3.8499999999999996 1.79924666
35 3.3 1.80041284
36 2.75 1.79973814
37 2.2 1.80053184
38 1.6500000000000001 1.80088899
39 1.1 1.80146351
40 0.55 1.80126723
41 0.0 1.80076119
42 -0.55 1.8014677
43 -1.1 1.80273569
44 -1.6500000000000001 1.80243909
45 -2.2 1.8024282
46 -2.75 1.80442186
47 -3.3 1.80659243
48 -3.8499999999999996 1.8301316
49 -4.3999999999999995 1.84674894
50 -4.949999999999999 1.87876447
51 -5.499999999999999 1.91075348
52 -6.049999999999999 1.93767612
53 -6.599999999999999 1.95201058
54 -7.149999999999999 1.96293454
55 -7.699999999999998 1.96612748
56 -8.249999999999998 1.96889065
57 -8.799999999999999 1.97715291
58 -9.35 1.97990807
59 -9.9 1.97979351
60 -10.450000000000001 1.98184843
61 -11.000000000000002 1.98062659
62 -10.450000000000001 1.98225505
63 -9.9 1.98186425
64 -9.35 1.98267981
65 -8.799999999999999 1.98214788
66 -8.249999999999998 1.98288096
67 -7.699999999999998 1.98225937
68 -7.149999999999999 1.98149819
69 -6.599999999999999 1.98250907
70 -6.049999999999999 1.98207989
71 -5.499999999999999 1.98431879
72 -4.949999999999999 1.9840723
73 -4.3999999999999995 1.98307393
74 -3.8499999999999996 1.9840431
75 -3.3 1.98424056
76 -2.75 1.98401825
77 -2.2 1.9848532
78 -1.6500000000000001 1.98321558
79 -1.1 1.98373321
80 -0.55 1.9852506
81 0.0 1.98527756
