sample name
Applied in-plane field: 100.0(Oe)

Initial resistance: 1401.7024973898976Ohm 
Number Current(mA) Resistance(Ohm)
Pulse width 0.7s
1 0 1.97568763
2 0.55 1.97583755
3 1.1 1.9758026
4 1.6500000000000001 1.97530106
5 2.2 1.97520923
6 2.75 1.97130786
7 3.3 1.93194199
8 3.8499999999999996 1.89776196
9 4.3999999999999995 1.86593792
10 4.949999999999999 1.83613646
11 5.499999999999999 1.81866258
12 6.049999999999999 1.80774617
13 6.599999999999999 1.7982363
14 7.149999999999999 1.79216334
15 7.699999999999998 1.78905646
16 8.249999999999998 1.78477037
17 8.799999999999999 1.78104676
18 9.35 1.77604419
19 9.9 1.774095
20 10.450000000000001 1.77105704
21 11.000000000000002 1.76739164
22 10.450000000000001 1.76615912
23 9.9 1.76520186
24 9.35 1.76394746
25 8.799999999999999 1.76375769
26 8.249999999999998 1.76575832
27 7.699999999999998 1.76528645
28 7.149999999999999 1.76725618
29 6.599999999999999 1.76896234
30 6.049999999999999 1.7691242
31 5.499999999999999 1.7713805
32 4.949999999999999 1.77287864
33 4.3999999999999995 1.77432743
34 3.8499999999999996 1.77425778
35 3.3 1.77693184
36 2.75 1.77801642
37 2.2 1.78001038
38 1.6500000000000001 1.7806455
39 1.1 1.78182943
40 0.55 1.78231851
41 0.0 1.78375441
42 -0.55 1.78391582
43 -1.1 1.78568273
44 -1.6500000000000001 1.79009394
45 -2.2 1.82781909
46 -2.75 1.85909313
47 -3.3 1.89221693
48 -3.8499999999999996 1.91826936
49 -4.3999999999999995 1.93294457
50 -4.949999999999999 1.94262714
51 -5.499999999999999 1.9512658
52 -6.049999999999999 1.95855699
53 -6.599999999999999 1.95935964
54 -7.149999999999999 1.96324718
55 -7.699999999999998 1.96366318
56 -8.249999999999998 1.96703396
57 -8.799999999999999 1.96493186
58 -9.35 1.96180835
59 -9.9 1.95920554
60 -10.450000000000001 1.95686133
61 -11.000000000000002 1.9547052
62 -10.450000000000001 1.95208031
63 -9.9 1.95310536
64 -9.35 1.95315293
65 -8.799999999999999 1.95184039
66 -8.249999999999998 1.95319878
67 -7.699999999999998 1.95377691
68 -7.149999999999999 1.95413429
69 -6.599999999999999 1.95662705
70 -6.049999999999999 1.95643927
71 -5.499999999999999 1.9576995
72 -4.949999999999999 1.95940313
73 -4.3999999999999995 1.96140882
74 -3.8499999999999996 1.96306958
75 -3.3 1.964554
76 -2.75 1.96574606
77 -2.2 1.96614482
78 -1.6500000000000001 1.96736019
79 -1.1 1.96902449
80 -0.55 1.97047429
81 0.0 1.97164582
