sample name
Applied in-plane field: 100.0(Oe)

Initial resistance: 1336.3970424473293Ohm 
Number Current(mA) Resistance(Ohm)
Pulse width 0.39999999999999997s
1 0 1.97779179
2 0.55 1.97795619
3 1.1 1.97823081
4 1.6500000000000001 1.9780831
5 2.2 1.97780519
6 2.75 1.97775807
7 3.3 1.96101598
8 3.8499999999999996 1.9235755
9 4.3999999999999995 1.88836627
10 4.949999999999999 1.86253
11 5.499999999999999 1.84117383
12 6.049999999999999 1.83293902
13 6.599999999999999 1.80826025
14 7.149999999999999 1.79747846
15 7.699999999999998 1.79603417
16 8.249999999999998 1.79310272
17 8.799999999999999 1.7900629
18 9.35 1.78677685
19 9.9 1.78371066
20 10.450000000000001 1.77976172
21 11.000000000000002 1.7786194
22 10.450000000000001 1.7750692
23 9.9 1.77488077
24 9.35 1.77364865
25 8.799999999999999 1.77316923
26 8.249999999999998 1.77443911
27 7.699999999999998 1.77460079
28 7.149999999999999 1.77569844
29 6.599999999999999 1.77765344
30 6.049999999999999 1.77743568
31 5.499999999999999 1.77932251
32 4.949999999999999 1.77982775
33 4.3999999999999995 1.77937416
34 3.8499999999999996 1.78177913
35 3.3 1.78331176
36 2.75 1.78313125
37 2.2 1.78508763
38 1.6500000000000001 1.7871348
39 1.1 1.78809006
40 0.55 1.78847492
41 0.0 1.78753069
42 -0.55 1.7886628
43 -1.1 1.79028068
44 -1.6500000000000001 1.79142855
45 -2.2 1.79255454
46 -2.75 1.82744932
47 -3.3 1.86413026
48 -3.8499999999999996 1.9049405
49 -4.3999999999999995 1.92160227
50 -4.949999999999999 1.93502654
51 -5.499999999999999 1.94602388
52 -6.049999999999999 1.95457844
53 -6.599999999999999 1.95579949
54 -7.149999999999999 1.95915053
55 -7.699999999999998 1.96489148
56 -8.249999999999998 1.96741232
57 -8.799999999999999 1.96832931
58 -9.35 1.96901717
59 -9.9 1.96640792
60 -10.450000000000001 1.96454343
61 -11.000000000000002 1.96377181
62 -10.450000000000001 1.96259439
63 -9.9 1.96281544
64 -9.35 1.962658
65 -8.799999999999999 1.96256539
66 -8.249999999999998 1.9639425
67 -7.699999999999998 1.96383468
68 -7.149999999999999 1.96387915
69 -6.599999999999999 1.96483271
70 -6.049999999999999 1.96481021
71 -5.499999999999999 1.96763071
72 -4.949999999999999 1.96942282
73 -4.3999999999999995 1.97062439
74 -3.8499999999999996 1.97015213
75 -3.3 1.97103685
76 -2.75 1.97157088
77 -2.2 1.9742107
78 -1.6500000000000001 1.97426557
79 -1.1 1.97534429
80 -0.55 1.97639423
81 0.0 1.97725773
